ENVI ASCII Plot File [Sat Oct  3 15:49:00 2015]
Column 1: Wavelength
Column 2: kazzz3_f_f_002.txt:C2~~1
  0.4003   3.9052
  0.4048   3.9100
  0.4094   3.9101
  0.4139   3.9191
  0.4184   3.9306
  0.4229   3.9475
  0.4274   3.9772
  0.4320   3.9902
  0.4365   4.0032
  0.4410   4.0303
  0.4456   4.0831
  0.4501   4.1808
  0.4547   4.3528
  0.4592   4.6233
  0.4637   5.0161
  0.4683   5.5513
  0.4728   6.1986
  0.4774   6.9620
  0.4820   7.7940
  0.4865   8.7831
  0.4911  10.1430
  0.4956  11.8200
  0.5002  13.8935
  0.5048  16.1484
  0.5094  18.2492
  0.5139  20.0450
  0.5185  21.6135
  0.5231  22.7947
  0.5277  23.3691
  0.5323  23.3031
  0.5369  22.7215
  0.5415  21.7886
  0.5461  20.6442
  0.5507  19.3544
  0.5552  18.0397
  0.5599  16.6453
  0.5645  15.3179
  0.5691  14.0254
  0.5737  12.7781
  0.5783  11.5778
  0.5829  10.3996
  0.5875   9.2850
  0.5922   8.2166
  0.5968   7.3320
  0.6014   6.6056
  0.6061   6.0678
  0.6107   5.7002
  0.6153   5.4470
  0.6200   5.2860
  0.6246   5.1637
  0.6292   5.0825
  0.6339   5.0156
  0.6386   4.9570
  0.6432   4.8963
  0.6479   4.8564
  0.6525   4.8461
  0.6572   4.8945
  0.6618   4.9959
  0.6665   5.1424
  0.6712   5.3241
  0.6759   5.5359
  0.6805   5.7542
  0.6852   5.9634
  0.6899   6.1693
  0.6946   6.3651
  0.6993   6.5388
  0.7039   6.6590
  0.7086   6.7028
  0.7133   6.6701
  0.7180   6.6021
  0.7227   6.5427
  0.7274   6.5628
  0.7321   6.6905
  0.7368   6.9250
  0.7416   7.2386
  0.7463   7.6127
  0.7510   8.0234
  0.7557   8.3926
  0.7604   8.6311
  0.7651   8.8136
  0.7699   8.9471
  0.7746   9.0023
  0.7793   9.0650
  0.7841   9.1501
  0.7888   9.3312
  0.7936   9.6109
  0.7983  10.0329
  0.8030  10.5704
  0.8078  11.1926
  0.8125  11.8698
  0.8173  12.6228
  0.8220  13.3783
  0.8268  14.1363
  0.8316  14.8680
  0.8363  15.5655
  0.8411  16.2923
  0.8459  16.9459
  0.8507  17.4712
  0.8554  18.0138
  0.8602  18.4320
  0.8650  18.8111
  0.8698  19.1164
  0.8745  19.3581
  0.8793  19.5753
  0.8841  19.7290
  0.8889  19.8996
  0.8937  19.9697
  0.8985  19.9984
  0.9033  20.1203
  0.9081  20.1523
  0.9129  20.1562
  0.9178  20.2030
  0.9226  20.2278
  0.9274  20.1679
  0.9322  19.9269
  0.9370  19.9362
  0.9419  19.9605
  0.9467  19.9238
  0.9515  19.9521
  0.9563  19.9824
  0.9612  19.8369
  0.9660  19.9576
  0.9709  19.9553
  0.9757  19.8796
  0.9805  20.1030
  0.9854  20.3998
  0.9901  20.4268
  0.9965  20.4861
  1.0028  20.4567
  1.0092  20.4275
  1.0155  20.4351
  1.0219  20.4340
  1.0282  20.4089
  1.0346  20.3863
  1.0410  20.3725
  1.0473  20.3620
  1.0537  20.3520
  1.0600  20.3227
  1.0664  20.2695
  1.0728  20.2485
  1.0791  20.2159
  1.0855  20.1785
  1.0918  20.1179
  1.0982  20.0289
  1.1045  19.9826
  1.1109  19.8983
  1.1172  19.7755
  1.1236  19.6209
  1.1299  19.5606
  1.1363  19.6027
  1.1426  19.6247
  1.1489  19.6440
  1.1553  19.6165
  1.1616  19.6001
  1.1680  19.6152
  1.1743  19.5923
  1.1807  19.5694
  1.1870  19.5645
  1.1933  19.5491
  1.1997  19.5279
  1.2060  19.5098
  1.2124  19.5117
  1.2187  19.5060
  1.2250  19.5217
  1.2314  19.5562
  1.2377  19.5408
  1.2440  19.5341
  1.2504  19.6087
  1.2567  19.6289
  1.2630  19.5892
  1.2694  19.5781
  1.2757  19.5818
  1.2820  19.5967
  1.2884  19.6132
  1.2947  19.6057
  1.3010  19.5943
  1.3073  19.5540
  1.3137  19.4821
  1.3200  19.4395
  1.3263  19.4031
  1.3326  19.3252
  1.3390  19.1841
  1.3453  18.8626
  1.3516  18.1948
  1.3579  17.3605
  1.3643  16.4943
  1.3706  16.2522
  1.3769  16.0068
  1.3832  15.9825
  1.3895  16.1775
  1.3958  15.8642
  1.4022  15.8505
  1.4085  15.9673
  1.4148  16.1380
  1.4211  16.3016
  1.4274  16.3786
  1.4337  16.4191
  1.4400  16.3728
  1.4464  16.4400
  1.4527  16.5948
  1.4590  16.6038
  1.4653  16.5537
  1.4716  16.6029
  1.4779  16.7619
  1.4842  16.9432
  1.4905  17.0482
  1.4968  17.1051
  1.5031  17.1480
  1.5094  17.1875
  1.5157  17.2601
  1.5220  17.3574
  1.5283  17.4553
  1.5346  17.5082
  1.5409  17.5799
  1.5472  17.6651
  1.5535  17.6953
  1.5598  17.7031
  1.5661  17.7087
  1.5724  17.7587
  1.5787  17.8086
  1.5850  17.8449
  1.5913  17.8724
  1.5976  17.9517
  1.6039  18.0603
  1.6102  18.1696
  1.6165  18.2698
  1.6228  18.3502
  1.6291  18.4063
  1.6353  18.4284
  1.6416  18.4594
  1.6479  18.4542
  1.6542  18.4040
  1.6605  18.3144
  1.6668  18.2450
  1.6731  18.1716
  1.6793  18.1461
  1.6856  18.1070
  1.6919  18.0267
  1.6982  17.9000
  1.7045  17.8146
  1.7107  17.8257
  1.7170  17.8254
  1.7233  17.8576
  1.7296  17.9472
  1.7359  18.0028
  1.7421  18.0240
  1.7484  18.0390
  1.7547  18.0523
  1.7610  18.0470
  1.7672  18.0743
  1.7735  18.0828
  1.7798  18.0977
  1.7861  18.0943
  1.7923  18.1197
  1.7986  18.1494
  1.8049  18.2318
  1.8111  18.3650
  1.8174  18.5909
  1.8237  18.8161
  1.8299  18.8259
  1.8362  18.9795
  1.8425  19.0934
  1.8487  18.6903
  1.8550  18.7374
  1.8613  18.7464
  1.8675  18.3060
  1.8738  18.0276
  1.8800  18.3288
  1.8863  18.8324
  1.8925  19.5563
  1.8988  22.2560
  1.9051  21.9957
  1.9113  19.5652
  1.9176  17.7804
  1.9238  16.2381
  1.9301  15.5056
  1.9363  15.4509
  1.9426  16.4652
  1.9488  16.6848
  1.9551  17.0485
  1.9613  17.3300
  1.9676  17.3815
  1.9738  17.3679
  1.9801  17.4397
  1.9863  17.4343
  1.9926  17.5204
  1.9988  17.6602
  2.0051  17.9519
  2.0113  18.2002
  2.0176  18.1677
  2.0238  17.9325
  2.0301  17.6805
  2.0363  17.4905
  2.0425  17.3378
  2.0488  17.1626
  2.0550  17.1278
  2.0612  16.9142
  2.0675  16.6684
  2.0737  16.5832
  2.0800  16.4512
  2.0862  16.4256
  2.0924  16.3352
  2.0987  16.2270
  2.1049  16.2373
  2.1111  16.2780
  2.1174  16.2551
  2.1236  16.2587
  2.1298  16.2779
  2.1361  16.3403
  2.1423  16.5188
  2.1485  16.6566
  2.1548  16.6757
  2.1610  16.7818
  2.1672  16.8487
  2.1734  16.8997
  2.1797  16.9672
  2.1859  17.0886
  2.1921  17.1467
  2.1983  17.1773
  2.2045  17.0179
  2.2108  16.8599
  2.2170  16.7457
  2.2232  16.4007
  2.2294  15.8632
  2.2356  15.1573
  2.2419  14.3413
  2.2481  13.6837
  2.2543  13.1526
  2.2605  12.9009
  2.2667  12.6506
  2.2729  12.5722
  2.2791  12.5668
  2.2854  12.4793
  2.2916  12.3734
  2.2978  12.4449
  2.3040  12.5781
  2.3102  12.7076
  2.3164  12.8118
  2.3226  13.1165
  2.3288  13.0895
  2.3350  13.0186
  2.3412  13.0695
  2.3474  13.2032
  2.3536  13.3372
  2.3598  13.3937
  2.3661  13.4498
  2.3723  13.2946
  2.3785  13.2192
  2.3846  13.2513
  2.3909  13.3029
  2.3970  13.4431
  2.4032  13.3411
  2.4095  13.2280
  2.4156  13.3396
  2.4218  13.2486
  2.4280  13.2655
  2.4342  13.2532
  2.4404  12.9221
  2.4466  12.7425
  2.4528  12.3666
